File: 学部3年/前期/学生実験/B2/XRD/Fe2O3_calc.txt
Fe2O3	100.001
2.46	0	20
2.93	0	20
3.4	0	20
3.87	0	20
4.34	0	20
4.81	0	20
5.28	0	20
5.75	0	20
6.22	0	20
6.69	0	20
7.16	0	20
7.63	0	20
8.1	0	20
8.57	0	20
9.04	0	20
9.51	0	20
9.98	0	20
10.45	0	20
10.92	0	20
11.39	0	20
11.86	0	20
12.33	0	20
12.8	0	20
13.27	0	20
13.74	0	20
14.21	0	20
14.68	0	20
15.15	0	20
15.62	0	20
16.09	0	20
16.56	0	20
17.03	0	20
17.5	0	20
17.97	0	20
18.44	0	20
18.91	0	20
19.38	0	20
19.85	0	20
20.32	0	20
20.79	0	20
21.26	0	20
21.73	0	20
22.2	0	20
22.67	0	20
23.14	0	20
23.61	0.413	20.413
24.08	13.334	33.334
24.55	0	20
25.02	0	20
25.49	0	20
25.96	0	20
26.43	0	20
26.9	0	20
27.37	0	20
27.84	0	20
28.31	0	20
28.78	0	20
29.25	0	20
29.72	0	20
30.19	0	20
30.66	0	20
31.13	0	20
31.6	0	20
32.07	0	20
32.54	0.844	20.844
33.01	54.511	74.511
33.48	0.129	20.129
33.95	0	20
34.42	0	20
34.89	0.236	20.236
35.36	9.781	29.781
35.83	0.614	20.614
36.3	0	20
36.77	0	20
37.24	0	20
37.71	0	20
38.18	0	20
38.65	0.043	20.043
39.12	0.542	20.542
39.59	0	20
40.06	0	20
40.53	2.135	22.135
41	0.205	20.205
41.47	0	20
41.94	0	20
42.41	0	20
42.88	0.023	20.023
43.35	1.074	21.074
43.82	0.006	20.006
44.29	0	20
44.76	0	20
45.23	0	20
45.7	0	20
46.17	0	20
46.64	0	20
47.11	0	20
47.58	0	20
48.05	0	20
48.52	0	20
48.99	1.135	21.135
49.46	0.874	20.874
49.93	0	20
50.4	0	20
50.87	0	20
51.34	0	20
51.81	0	20
52.28	0	20
52.75	0	20
53.22	0.234	20.234
53.69	42.152	62.152
54.16	0.463	20.463
54.63	0	20
55.1	0	20
55.57	0.007	20.007
56.04	0.267	20.267
56.51	0.001	20.001
56.98	0.296	20.296
57.45	0.251	20.251
57.92	0	20
58.39	0	20
58.86	0	20
59.33	0	20
59.8	0	20
60.27	0	20
60.74	0	20
61.21	0	20
61.68	0.217	20.217
62.15	8.844	28.844
62.62	0.185	20.185
63.09	0	20
63.56	1.946	21.946
64.03	0.698	20.698
64.5	0	20
64.97	0	20
65.44	0.007	20.007
65.91	0.025	20.025
66.38	0	20
66.85	0	20
67.32	0	20
67.79	0	20
68.26	0	20
68.73	0.015	20.015
69.2	0.23	20.23
69.67	0.01	20.01
70.14	0	20
70.61	0	20
71.08	0.186	20.186
71.55	4.192	24.192
72.02	0.24	20.24
72.49	0.003	20.003
72.96	0	20
73.43	0	20
73.9	0	20
74.37	0.002	20.002
74.84	0.172	20.172
75.31	2.677	22.677
75.78	0.014	20.014
76.25	0	20
76.72	0.014	20.014
77.19	0.602	20.602
77.66	0.087	20.087
78.13	0.028	20.028
78.6	0.454	20.454
79.07	0.046	20.046
79.54	0.014	20.014
80.01	0.212	20.212
80.48	0.415	20.415
80.95	0.007	20.007
81.42	0	20
81.89	0.041	20.041
82.36	2.531	22.531
82.83	0.069	20.069
83.3	0.003	20.003
83.77	0.313	20.313
84.24	0.211	20.211
84.71	2.676	22.676
85.18	0.019	20.019
85.65	0	20
86.12	0	20
86.59	0	20
87.06	0	20
87.53	0.054	20.054
88	5.761	25.761
88.47	0.215	20.215
88.94	0.013	20.013
89.41	0	20
89.88	0	20
90.35	0.005	20.005
90.82	0.4	20.4
91.29	0.032	20.032
91.76	0.001	20.001
92.23	0	20
92.7	0.168	20.168
93.17	0.703	20.703
93.64	0.069	20.069
94.11	0	20
94.58	0.012	20.012
95.05	0.46	20.46
95.52	0.21	20.21
95.99	0.006	20.006
96.46	0.006	20.006
96.93	0	20
97.4	0	20
97.87	0	20
98.34	0	20
98.81	0	20
99.28	0	20
99.75	0	20
100.22	0.003	20.003
100.69	0.009	20.009
101.16	0.023	20.023
101.63	0.843	20.843
102.1	0.062	20.062
102.57	0.004	20.004
103.04	0	20
103.51	0.002	20.002
103.98	0.031	20.031
104.45	0.086	20.086
104.92	0.002	20.002
105.39	0.046	20.046
105.86	1.07	21.07
106.33	2.448	22.448
106.8	0.056	20.056
107.27	0.263	20.263
107.74	0.446	20.446
108.21	0.046	20.046
108.68	0	20
109.15	0.004	20.004
109.62	0.006	20.006
110.09	0.003	20.003
110.56	0.018	20.018
111.03	0.043	20.043
111.5	0.012	20.012
111.97	0.004	20.004
112.44	0.021	20.021
112.91	0.073	20.073
113.38	0.024	20.024
113.85	0.002	20.002
114.32	0.026	20.026
114.79	0.184	20.184
115.26	0.465	20.465
115.73	0.187	20.187
116.2	0.029	20.029
116.67	0.662	20.662
117.14	0.389	20.389
117.61	0.233	20.233
118.08	0.117	20.117
118.55	0.022	20.022
119.02	0.008	20.008
119.49	0.001	20.001
119.96	0	20
120.43	0	20
120.9	0.056	20.056
121.37	0.695	20.695
121.84	0.442	20.442
122.31	0.179	20.179
122.78	0.019	20.019
123.25	0	20
123.72	0.005	20.005
124.19	0.009	20.009
124.66	0.027	20.027
125.13	0.07	20.07
125.6	0.083	20.083
126.07	0.025	20.025
126.54	0.012	20.012
127.01	0.037	20.037
127.48	0.716	20.716
127.95	0.173	20.173
128.42	0.082	20.082
128.89	0.009	20.009
129.36	0.036	20.036
129.83	0.126	20.126
130.3	3.886	23.886
130.77	0.52	20.52
131.24	0.175	20.175
131.71	0.083	20.083
132.18	1.709	21.709
132.65	0.208	20.208
133.12	0.113	20.113
133.59	0.013	20.013
134.06	0.005	20.005
134.53	0	20
135	0	20
135.47	0	20
135.94	0	20
136.41	0	20
136.88	0.001	20.001
137.35	0.003	20.003
137.82	0.028	20.028
138.29	0.007	20.007
138.76	0.009	20.009
139.23	0.074	20.074
139.7	0.019	20.019
140	0.038	20.038