File: 学部3年/前期/学生実験/B2/XRD/NiFe2O4_calc.txt
Fe2NiO4	100
2	0	140
2.47	0	140
2.94	0	140
3.41	0	140
3.88	0	140
4.35	0	140
4.82	0	140
5.29	0	140
5.76	0	140
6.23	0	140
6.7	0	140
7.17	0	140
7.64	0	140
8.11	0	140
8.58	0	140
9.05	0	140
9.52	0	140
9.99	0	140
10.46	0	140
10.93	0	140
11.4	0	140
11.87	0	140
12.34	0	140
12.81	0	140
13.28	0	140
13.75	0	140
14.22	0	140
14.69	0	140
15.16	0	140
15.63	0	140
16.1	0	140
16.57	0	140
17.04	0	140
17.51	0	140
17.98	0.203	140.203
18.45	0.658	140.658
18.92	0	140
19.39	0	140
19.86	0	140
20.33	0	140
20.8	0	140
21.27	0	140
21.74	0	140
22.21	0	140
22.68	0	140
23.15	0	140
23.62	0	140
24.09	0	140
24.56	0	140
25.03	0	140
25.5	0	140
25.97	0	140
26.44	0	140
26.91	0	140
27.38	0	140
27.85	0	140
28.32	0	140
28.79	0	140
29.26	0	140
29.73	0.199	140.199
30.2	29.87	169.87
30.67	0.051	140.051
31.14	0	140
31.61	0	140
32.08	0	140
32.55	0	140
33.02	0	140
33.49	0	140
33.96	0	140
34.43	0	140
34.9	0	140
35.37	2.987	142.987
35.84	1.686	141.686
36.31	0	140
36.78	0.056	140.056
37.25	4.142	144.142
37.72	0.015	140.015
38.19	0	140
38.66	0	140
39.13	0	140
39.6	0	140
40.07	0	140
40.54	0	140
41.01	0	140
41.48	0	140
41.95	0	140
42.42	0	140
42.89	0.213	140.213
43.36	10.004	150.004
43.83	0.032	140.032
44.3	0	140
44.77	0	140
45.24	0	140
45.71	0	140
46.18	0	140
46.65	0	140
47.12	0.003	140.003
47.59	0.005	140.005
48.06	0	140
48.53	0	140
49	0	140
49.47	0	140
49.94	0	140
50.41	0	140
50.88	0	140
51.35	0	140
51.82	0	140
52.29	0	140
52.76	0	140
53.23	0.063	140.063
53.7	3.797	143.797
54.17	0.052	140.052
54.64	0	140
55.11	0	140
55.58	0	140
56.05	0	140
56.52	0	140
56.99	0.848	140.848
57.46	1.596	141.596
57.93	0	140
58.4	0	140
58.87	0	140
59.34	0	140
59.81	0	140
60.28	0	140
60.75	0	140
61.22	0	140
61.69	0	140
62.16	0	140
62.63	1.211	141.211
63.1	1.982	141.982
63.57	0	140
64.04	0	140
64.51	0	140
64.98	0	140
65.45	0	140
65.92	0.073	140.073
66.39	0.039	140.039
66.86	0.001	140.001
67.33	0.012	140.012
67.8	0	140
68.27	0	140
68.74	0	140
69.21	0	140
69.68	0	140
70.15	0	140
70.62	0	140
71.09	0.089	140.089
71.56	0.36	140.36
72.03	0.005	140.005
72.5	0	140
72.97	0	140
73.44	0	140
73.91	0.048	140.048
74.38	4.469	144.469
74.85	0.094	140.094
75.32	1.732	141.732
75.79	0.057	140.057
76.26	0	140
76.73	0	140
77.2	0	140
77.67	0	140
78.14	0	140
78.61	0	140
79.08	0.044	140.044
79.55	0.605	140.605
80.02	0.006	140.006
80.49	0	140
80.96	0	140
81.43	0	140
81.9	0.007	140.007
82.37	0.233	140.233
82.84	0.009	140.009
83.31	0	140
83.78	0	140
84.25	0	140
84.72	0	140
85.19	0	140
85.66	0	140
86.13	0	140
86.6	0.014	140.014
87.07	0.271	140.271
87.54	0.48	140.48
88.01	0.007	140.007
88.48	0	140
88.95	0	140
89.42	0.031	140.031
89.89	0.298	140.298
90.36	2.133	142.133
90.83	0.038	140.038
91.3	0	140
91.77	0	140
92.24	0	140
92.71	0	140
93.18	0	140
93.65	0	140
94.12	0	140
94.59	0.044	140.044
95.06	1.339	141.339
95.53	0.076	140.076
96	0.006	140.006
96.47	0	140
96.94	0	140
97.41	0	140
97.88	0.006	140.006
98.35	0.002	140.002
98.82	0.001	140.001
99.29	0.002	140.002
99.76	0	140
100.23	0	140
100.7	0	140
101.17	0	140
101.64	0	140
102.11	0.005	140.005
102.58	0.034	140.034
103.05	0.142	140.142
103.52	0.026	140.026
103.99	0.003	140.003
104.46	0	140
104.93	0	140
105.4	0.045	140.045
105.87	2.595	142.595
106.34	1.434	141.434
106.81	0.178	140.178
107.28	0.338	140.338
107.75	0.006	140.006
108.22	0	140
108.69	0	140
109.16	0	140
109.63	0	140
110.1	0	140
110.57	0.02	140.02
111.04	1.311	141.311
111.51	0.548	140.548
111.98	0.008	140.008
112.45	0	140
112.92	0	140
113.39	0.001	140.001
113.86	0.006	140.006
114.33	0.051	140.051
114.8	0.018	140.018
115.27	0.02	140.02
115.74	0.011	140.011
116.21	0	140
116.68	0	140
117.15	0	140
117.62	0	140
118.09	0	140
118.56	0	140
119.03	0.003	140.003
119.5	0.037	140.037
119.97	0.031	140.031
120.44	0.012	140.012
120.91	0.001	140.001
121.38	0	140
121.85	0	140
122.32	0.024	140.024
122.79	0.142	140.142
123.26	0.65	140.65
123.73	0.752	140.752
124.2	0.022	140.022
124.67	0.007	140.007
125.14	0	140
125.61	0	140
126.08	0	140
126.55	0	140
127.02	0	140
127.49	0	140
127.96	0	140
128.43	0.059	140.059
128.9	0.44	140.44
129.37	0.674	140.674
129.84	1.461	141.461
130.31	0.048	140.048
130.78	0.014	140.014
131.25	0	140
131.72	0	140
132.19	0.001	140.001
132.66	0.005	140.005
133.13	0.048	140.048
133.6	0.02	140.02
134.07	0.003	140.003
134.54	0	140
135.01	0	140
135.48	0	140
135.95	0	140
136.42	0	140
136.89	0	140
137.36	0	140
137.83	0	140
138.3	0	140
138.77	0.006	140.006
139.24	0.014	140.014
139.71	0.062	140.062
140	0.364	140.364