File: 学部3年/前期/学生実験/B2/XRD/Sample1_NaOH_2θ_θ.TXT
Sample	äwê∂é¿å±3TM_NaOH
Comments
Filename	C:\Users\User1\Desktop\DATA\äwê∂é¿å±3TM\äwê∂é¿å±3TM_NaOH_2É∆_É∆.raw
Goniometer	MiniFlex 300/600 +
Attachment	âÒì]ééóøë‰
Monochromater	None
X	0
Y	0
Z	0
ScanningMode	2Theta/Theta
ScanningType	Continuos Scanning
X-Ray	40kV/15mA
IHS	5.0mm
DS	1.250deg
SS	13.0mm(Open)
RS	13.0mm(Open)
K-beta(x1)
Start	20
Stop	80
Step	0.01
Speed	1
Offset	0	20273
20	914	384.508
20.21	933	384.602
20.42	938	384.627
20.63	942	384.647
20.84	914	384.508
21.05	913	384.504
21.26	920	384.538
21.47	969	384.78
21.68	955	384.711
21.89	935	384.612
22.1	923	384.553
22.31	966	384.765
22.52	904	384.459
22.73	962	384.745
22.94	1019	385.026
23.15	956	384.716
23.36	932	384.597
23.57	947	384.671
23.78	913	384.504
23.99	946	384.666
24.2	939	384.632
24.41	924	384.558
24.62	928	384.578
24.83	949	384.681
25.04	927	384.573
25.25	984	384.854
25.46	899	384.434
25.67	934	384.607
25.88	966	384.765
26.09	1001	384.938
26.3	937	384.622
26.51	959	384.73
26.72	963	384.75
26.93	972	384.795
27.14	991	384.888
27.35	1003	384.947
27.56	999	384.928
27.77	959	384.73
27.98	1020	385.031
28.19	973	384.799
28.4	1003	384.947
28.61	995	384.908
28.82	1033	385.095
29.03	1009	384.977
29.24	996	384.913
29.45	1052	385.189
29.66	1047	385.165
29.87	1078	385.317
30.08	1042	385.14
30.29	2872	394.167
30.5	1220	386.018
30.71	1069	385.273
30.92	1051	385.184
31.13	1083	385.342
31.34	1034	385.1
31.55	1031	385.086
31.76	1081	385.332
31.97	1070	385.278
32.18	1185	385.845
32.39	1082	385.337
32.6	1054	385.199
32.81	1054	385.199
33.02	1075	385.303
33.23	1082	385.337
33.44	1108	385.465
33.65	1128	385.564
33.86	1110	385.475
34.07	1171	385.776
34.28	1097	385.411
34.49	1225	386.043
34.7	1270	386.264
34.91	1140	385.623
35.12	1206	385.949
35.33	1320	386.511
35.54	1637	388.075
35.75	13317	445.688
35.96	1571	387.749
36.17	1284	386.334
36.38	1287	386.348
36.59	1228	386.057
36.8	1202	385.929
37.01	1234	386.087
37.22	1256	386.195
37.43	1825	389.002
37.64	1200	385.919
37.85	1176	385.801
38.06	1201	385.924
38.27	1216	385.998
38.48	1178	385.811
38.69	1217	386.003
38.9	1172	385.781
39.11	1158	385.712
39.32	1172	385.781
39.53	1203	385.934
39.74	1200	385.919
39.95	1224	386.038
40.16	1175	385.796
40.37	1243	386.131
40.58	1233	386.082
40.79	1249	386.161
41	1216	385.998
41.21	1244	386.136
41.42	1265	386.24
41.63	1301	386.417
41.84	1511	387.453
42.05	1303	386.427
42.26	1298	386.403
42.47	1283	386.329
42.68	1265	386.24
42.89	1307	386.447
43.1	1447	387.138
43.31	1669	388.233
43.52	4567	402.527
43.73	1396	386.886
43.94	1341	386.615
44.15	1283	386.329
44.36	1299	386.408
44.57	1307	386.447
44.78	1370	386.758
44.99	1296	386.393
45.2	1339	386.605
45.41	1319	386.506
45.62	1326	386.541
45.83	1318	386.501
46.04	1295	386.388
46.25	1349	386.654
46.46	1349	386.654
46.67	1275	386.289
46.88	1349	386.654
47.09	1340	386.61
47.3	1332	386.57
47.51	1481	387.305
47.72	1355	386.684
47.93	1349	386.654
48.14	1379	386.802
48.35	1362	386.718
48.56	1339	386.605
48.77	1370	386.758
48.98	1370	386.758
49.19	1361	386.713
49.4	1352	386.669
49.61	1440	387.103
49.82	1409	386.95
50.03	1411	386.96
50.24	1405	386.9304
50.45	1429	387.049
50.66	1383	386.822
50.87	1454	387.172
51.08	1436	387.083
51.29	1468	387.241
51.5	1488	387.34
51.71	1460	387.202
51.92	1483	387.315
52.13	1455	387.177
52.34	1435	387.078
52.55	1435	387.078
52.76	1500	387.399
52.97	1437	387.088
53.18	1507	387.434
53.39	1478	387.29
53.6	1567	387.729
53.81	2815	393.885
54.02	2461	392.139
54.23	1575	387.769
54.44	1516	387.478
54.65	1519	387.493
54.86	1569	387.739
55.07	1528	387.537
55.28	1557	387.68
55.49	1563	387.71
55.7	1542	387.606
55.91	1580	387.794
56.12	1557	387.68
56.33	1600	387.892
56.54	1547	387.631
56.75	1604	387.912
56.96	1621	387.996
57.17	1795	388.854
57.38	8481	421.834
57.59	4200	400.717
57.8	1722	388.494
58.01	1650	388.139
58.22	1648	388.129
58.43	1605	387.917
58.64	1584	387.813
58.85	1628	388.03
59.06	1653	388.154
59.27	1760	388.681
59.48	1684	388.307
59.69	1625	388.016
59.9	1611	387.947
60.11	1618	387.981
60.32	1610	387.942
60.53	1630	388.04
60.74	1686	388.316
60.95	1644	388.109
61.16	1725	388.509
61.37	1682	388.297
61.58	1725	388.509
61.79	1840	389.076
62	1731	388.538
62.21	1761	388.686
62.42	1718	388.474
62.63	1845	389.101
62.84	2001	389.87
63.05	10714	432.849
63.26	3543	397.476
63.47	1852	389.135
63.68	1753	388.647
63.89	1761	388.686
64.1	1747	388.617
64.31	1692	388.346
64.52	1710	388.435
64.73	1739	388.578
64.94	1763	388.696
65.15	1714	388.455
65.36	1727	388.519
65.57	1731	388.538
65.78	1744	388.603
65.99	1740	388.583
66.2	1807	388.913
66.41	1783	388.795
66.62	1742	388.593
66.83	1813	388.943
67.04	1738	388.573
67.25	1784	388.8
67.46	1746	388.612
67.67	1741	388.588
67.88	1791	388.834
68.09	1736	388.563
68.3	1766	388.711
68.51	1772	388.741
68.72	1760	388.681
68.93	1767	388.716
69.14	1718	388.474
69.35	1803	388.894
69.56	1833	389.042
69.77	1825	389.002
69.98	1783	388.795
70.19	1747	388.617
70.4	1838	389.066
70.61	1815	388.953
70.82	1783	388.795
71.03	1810	388.928
71.24	1857	389.16
71.45	1993	389.831
71.66	1898	389.362
71.87	1832	389.037
72.08	1789	388.825
72.29	1807	388.913
72.5	1830	389.027
72.71	1836	389.056
72.92	1902	389.382
73.13	1798	388.869
73.34	1851	389.13
73.55	1815	388.953
73.76	1835	389.051
73.97	1792	388.839
74.18	1855	389.15
74.39	1897	389.357
74.6	4398	401.694
74.81	3228	395.923
75.02	1878	389.264
75.23	1863	389.19
75.44	1902	389.382
75.65	2221	390.955
75.86	2118	390.447
76.07	1826	389.007
76.28	1852	389.135
76.49	1863	389.19
76.7	1768	388.721
76.91	1797	388.864
77.12	1813	388.943
77.33	1867	389.209
77.54	1860	389.175
77.75	1789	388.825
77.96	1851	389.13
78.17	1806	388.908
78.38	1832	389.037
78.59	1844	389.096
78.8	1880	389.273
79.01	1890	389.323
79.22	1913	389.436
79.43	1840	389.076
79.64	2435	392.011
79.85	2399	391.833
80	1945	389.594