File: 学部3年/前期/学生実験/B2/XRD/Sample2_NH3_2θ_θ.TXT
Sample	äwê∂é¿å±3TM_NH3
Comments
Filename	C:\Users\User1\Desktop\DATA\äwê∂é¿å±3TM\äwê∂é¿å±3TM_NH3_2É∆_É∆.raw
Goniometer	MiniFlex 300/600 +
Attachment	âÒì]ééóøë‰
Monochromater	None
X	0
Y	0
Z	0
ScanningMode	2Theta/Theta
ScanningType	Continuos Scanning
X-Ray	40kV/15mA
IHS	5.0mm
DS	1.250deg
SS	13.0mm(Open)
RS	13.0mm(Open)
K-beta(x1)
Start	20
Stop	80
Step	0.01
Speed	1
Offset	0	10539
20	858	268.141
20.21	809	267.676
20.42	843	267.999
20.63	828	267.857
20.84	838	267.951
21.05	825	267.828
21.26	836	267.932
21.47	844	268.008
21.68	822	267.8
21.89	805	267.638
22.1	847	268.037
22.31	834	267.913
22.52	827	267.847
22.73	829	267.866
22.94	840	267.97
23.15	859	268.151
23.36	842	267.989
23.57	875	268.302
23.78	840	267.97
23.99	862	268.179
24.2	2243	281.283
24.41	864	268.198
24.62	852	268.084
24.83	848	268.046
25.04	833	267.904
25.25	843	267.999
25.46	840	267.97
25.67	830	267.876
25.88	863	268.189
26.09	826	267.838
26.3	856	268.122
26.51	859	268.151
26.72	843	267.999
26.93	848	268.046
27.14	808	267.667
27.35	898	268.521
27.56	862	268.179
27.77	865	268.208
27.98	864	268.198
28.19	842	267.989
28.4	864	268.198
28.61	880	268.35
28.82	848	268.046
29.03	838	267.951
29.24	876	268.312
29.45	877	268.321
29.66	882	268.369
29.87	955	269.062
30.08	880	268.35
30.29	1490	274.138
30.5	907	268.606
30.71	895	268.492
30.92	910	268.635
31.13	864	268.198
31.34	895	268.492
31.55	878	268.331
31.76	850	268.065
31.97	890	268.445
32.18	953	269.043
32.39	933	268.853
32.6	942	268.938
32.81	954	269.052
33.02	1218	271.557
33.23	5773	314.777
33.44	1038	269.849
33.65	926	268.786
33.86	902	268.559
34.07	905	268.587
34.28	925	268.777
34.49	935	268.872
34.7	939	268.91
34.91	947	268.986
35.12	946	268.976
35.33	1053	269.991
35.54	1749	276.596
35.75	3904	297.043
35.96	1068	270.134
36.17	965	269.156
36.38	911	268.644
36.59	957	269.081
36.8	978	269.28
37.01	928	268.805
37.22	964	269.147
37.43	1031	269.783
37.64	952	269.033
37.85	975	269.251
38.06	990	269.394
38.27	969	269.194
38.48	976	269.261
38.69	937	268.891
38.9	964	269.147
39.11	990	269.394
39.32	1102	270.4564
39.53	984	269.337
39.74	1004	269.527
39.95	962	269.128
40.16	981	269.308
40.37	988	269.375
40.58	1036	269.83
40.79	1451	273.768
41	1596	275.144
41.21	1073	270.181
41.42	996	269.451
41.63	1025	269.726
41.84	1025	269.726
42.05	990	269.394
42.26	975	269.251
42.47	1018	269.659
42.68	1004	269.527
42.89	996	269.451
43.1	1010	269.583
43.31	1271	272.06
43.52	1386	273.151
43.73	1016	269.64
43.94	1077	270.219
44.15	1049	269.954
44.36	1033	269.802
44.57	1051	269.972
44.78	1019	269.669
44.99	1040	269.868
45.2	1076	270.21
45.41	1073	270.181
45.62	1037	269.84
45.83	1038	269.849
46.04	1022	269.697
46.25	1027	269.745
46.46	1113	270.561
46.67	1071	270.162
46.88	1056	270.02
47.09	1047	269.935
47.3	1036	269.83
47.51	1090	270.343
47.72	1108	270.513
47.93	1096	270.399
48.14	1142	270.836
48.35	1119	270.618
48.56	1101	270.447
48.77	1100	270.437
48.98	1102	270.4564
49.19	1161	271.016
49.4	2437	283.124
49.61	3027	288.722
49.82	1201	271.396
50.03	1112	270.551
50.24	1135	270.77
50.45	1143	270.845
50.66	1099	270.428
50.87	1175	271.149
51.08	1119	270.618
51.29	1137	270.788
51.5	1131	270.732
51.71	1155	270.959
51.92	1113	270.561
52.13	1165	271.054
52.34	1173	271.13
52.55	1169	271.092
52.76	1173	271.13
52.97	1167	271.073
53.18	1183	271.225
53.39	1204	271.424
53.6	1247	271.832
53.81	1524	274.461
54.02	3272	291.047
54.23	3930	297.29
54.44	1287	272.212
54.65	1232	271.69
54.86	1194	271.329
55.07	1193	271.32
55.28	1189	271.282
55.49	1248	271.842
55.7	1230	271.671
55.91	1241	271.775
56.12	1297	272.307
56.33	1259	271.946
56.54	1226	271.633
56.75	1234	271.709
56.96	1198	271.367
57.17	1282	272.164
57.38	2198	280.856
57.59	2488	283.608
57.8	1618	275.353
58.01	1249	271.851
58.22	1237	271.737
58.43	1266	272.013
58.64	1256	271.918
58.85	1253	271.889
59.06	1205	271.434
59.27	1297	272.307
59.48	1227	271.642
59.69	1259	271.946
59.9	1250	271.861
60.11	1253	271.889
60.32	1256	271.918
60.53	1288	272.221
60.74	1282	272.164
60.95	1266	272.013
61.16	1271	272.06
61.37	1312	272.449
61.58	1310	272.43
61.79	1248	271.842
62	1333	272.648
62.21	1392	273.208
62.42	5412	311.352
62.63	2671	285.344
62.84	1441	273.673
63.05	2123	280.144
63.26	1590	275.087
63.47	1378	273.075
63.68	1379	273.085
63.89	1980	278.787
64.1	2263	281.473
64.31	1422	273.493
64.52	1386	273.151
64.73	1325	272.572
64.94	1342	272.734
65.15	1316	272.487
65.36	1297	272.307
65.57	1318	272.506
65.78	1314	272.468
65.99	1338	272.696
66.2	1351	272.819
66.41	1333	272.648
66.62	1332	272.639
66.83	1369	272.99
67.04	1332	272.639
67.25	1331	272.629
67.46	1338	272.696
67.67	1366	272.961
67.88	1316	272.487
68.09	1322	272.544
68.3	1386	273.151
68.51	1337	272.686
68.72	1370	272.999
68.93	1321	272.534
69.14	1389	273.18
69.35	1396	273.246
69.56	1597	275.153
69.77	1541	274.622
69.98	1377	273.066
70.19	1353	272.838
70.4	1354	272.848
70.61	1380	273.094
70.82	1393	273.218
71.03	1357	272.876
71.24	1316	272.487
71.45	1455	273.806
71.66	1405	273.331
71.87	1571	274.907
72.08	1636	275.523
72.29	1753	276.633
72.5	1517	274.394
72.71	1427	273.54
72.92	1384	273.132
73.13	1402	273.303
73.34	1383	273.123
73.55	1436	273.626
73.76	1368	272.98
73.97	1315	272.477
74.18	1386	273.151
74.39	1382	273.113
74.6	1601	275.191
74.81	1472	273.967
75.02	1390	273.189
75.23	1458	273.834
75.44	2310	281.919
75.65	1917	278.19
75.86	1434	273.607
76.07	1368	272.98
76.28	1385	273.142
76.49	1409	273.369
76.7	1358	272.885
76.91	1379	273.085
77.12	1389	273.18
77.33	1350	272.81
77.54	1383	273.123
77.75	1700	276.131
77.96	1577	274.963
78.17	1420	273.474
78.38	1412	273.398
78.59	1420	273.474
78.8	1495	274.185
79.01	1500	274.233
79.22	1393	273.218
79.43	1441	273.673
79.64	1424	273.512
79.85	1442	273.683
80	1358	272.885